# Partition function for "H2 (11)".
# Temperature range: 1-6000K.
#T,K           Q(T)

   1                 1.0000
   2                 1.0000
   3                 1.0000
   4                 1.0000
   5                 1.0000
   6                 1.0000
   7                 1.0000
   8                 1.0000
   9                 1.0000
  10                 1.0000
  11                 1.0000
  12                 1.0000
  13                 1.0000
  14                 1.0000
  15                 1.0001
  16                 1.0002
  17                 1.0004
  18                 1.0007
  19                 1.0011
  20                 1.0018
  21                 1.0027
  22                 1.0039
  23                 1.0054
  24                 1.0074
  25                 1.0098
  26                 1.0128
  27                 1.0163
  28                 1.0204
  29                 1.0252
  30                 1.0306
  31                 1.0368
  32                 1.0437
  33                 1.0514
  34                 1.0598
  35                 1.0690
  36                 1.0790
  37                 1.0898
  38                 1.1014
  39                 1.1137
  40                 1.1269
  41                 1.1408
  42                 1.1554
  43                 1.1708
  44                 1.1869
  45                 1.2037
  46                 1.2212
  47                 1.2394
  48                 1.2582
  49                 1.2777
  50                 1.2977
  51                 1.3183
  52                 1.3395
  53                 1.3612
  54                 1.3834
  55                 1.4061
  56                 1.4292
  57                 1.4529
  58                 1.4769
  59                 1.5013
  60                 1.5262
  61                 1.5514
  62                 1.5769
  63                 1.6028
  64                 1.6289
  65                 1.6554
  66                 1.6821
  67                 1.7091
  68                 1.7364
  69                 1.7638
  70                 1.7915
  71                 1.8194
  72                 1.8474
  73                 1.8757
  74                 1.9041
  75                 1.9326
  76                 1.9613
  77                 1.9901
  78                 2.0190
  79                 2.0480
  80                 2.0771
  81                 2.1063
  82                 2.1356
  83                 2.1649
  84                 2.1943
  85                 2.2238
  86                 2.2532
  87                 2.2828
  88                 2.3123
  89                 2.3419
  90                 2.3716
  91                 2.4012
  92                 2.4308
  93                 2.4605
  94                 2.4901
  95                 2.5197
  96                 2.5493
  97                 2.5790
  98                 2.6085
  99                 2.6381
 100                 2.6677
 101                 2.6972
 102                 2.7267
 103                 2.7561
 104                 2.7856
 105                 2.8149
 106                 2.8443
 107                 2.8736
 108                 2.9028
 109                 2.9321
 110                 2.9612
 111                 2.9903
 112                 3.0194
 113                 3.0484
 114                 3.0773
 115                 3.1062
 116                 3.1351
 117                 3.1639
 118                 3.1926
 119                 3.2213
 120                 3.2499
 121                 3.2784
 122                 3.3069
 123                 3.3354
 124                 3.3637
 125                 3.3920
 126                 3.4203
 127                 3.4485
 128                 3.4766
 129                 3.5046
 130                 3.5326
 131                 3.5606
 132                 3.5884
 133                 3.6162
 134                 3.6440
 135                 3.6717
 136                 3.6993
 137                 3.7269
 138                 3.7544
 139                 3.7818
 140                 3.8092
 141                 3.8365
 142                 3.8637
 143                 3.8909
 144                 3.9181
 145                 3.9452
 146                 3.9722
 147                 3.9992
 148                 4.0261
 149                 4.0529
 150                 4.0797
 151                 4.1065
 152                 4.1331
 153                 4.1598
 154                 4.1864
 155                 4.2129
 156                 4.2394
 157                 4.2658
 158                 4.2921
 159                 4.3185
 160                 4.3447
 161                 4.3709
 162                 4.3971
 163                 4.4232
 164                 4.4493
 165                 4.4753
 166                 4.5013
 167                 4.5273
 168                 4.5531
 169                 4.5790
 170                 4.6048
 171                 4.6306
 172                 4.6563
 173                 4.6819
 174                 4.7076
 175                 4.7332
 176                 4.7587
 177                 4.7842
 178                 4.8097
 179                 4.8352
 180                 4.8606
 181                 4.8859
 182                 4.9112
 183                 4.9365
 184                 4.9618
 185                 4.9870
 186                 5.0122
 187                 5.0373
 188                 5.0625
 189                 5.0876
 190                 5.1126
 191                 5.1376
 192                 5.1626
 193                 5.1876
 194                 5.2125
 195                 5.2374
 196                 5.2623
 197                 5.2872
 198                 5.3120
 199                 5.3368
 200                 5.3616
 201                 5.3863
 202                 5.4110
 203                 5.4357
 204                 5.4604
 205                 5.4850
 206                 5.5096
 207                 5.5342
 208                 5.5588
 209                 5.5834
 210                 5.6079
 211                 5.6324
 212                 5.6569
 213                 5.6814
 214                 5.7058
 215                 5.7303
 216                 5.7547
 217                 5.7791
 218                 5.8034
 219                 5.8278
 220                 5.8521
 221                 5.8765
 222                 5.9008
 223                 5.9250
 224                 5.9493
 225                 5.9736
 226                 5.9978
 227                 6.0220
 228                 6.0462
 229                 6.0704
 230                 6.0946
 231                 6.1188
 232                 6.1429
 233                 6.1671
 234                 6.1912
 235                 6.2153
 236                 6.2394
 237                 6.2635
 238                 6.2876
 239                 6.3117
 240                 6.3357
 241                 6.3598
 242                 6.3838
 243                 6.4078
 244                 6.4318
 245                 6.4558
 246                 6.4798
 247                 6.5038
 248                 6.5278
 249                 6.5517
 250                 6.5757
 251                 6.5996
 252                 6.6236
 253                 6.6475
 254                 6.6714
 255                 6.6953
 256                 6.7192
 257                 6.7431
 258                 6.7670
 259                 6.7909
 260                 6.8148
 261                 6.8387
 262                 6.8625
 263                 6.8864
 264                 6.9102
 265                 6.9341
 266                 6.9579
 267                 6.9818
 268                 7.0056
 269                 7.0294
 270                 7.0532
 271                 7.0770
 272                 7.1008
 273                 7.1246
 274                 7.1484
 275                 7.1722
 276                 7.1960
 277                 7.2198
 278                 7.2436
 279                 7.2674
 280                 7.2911
 281                 7.3149
 282                 7.3387
 283                 7.3624
 284                 7.3862
 285                 7.4099
 286                 7.4337
 287                 7.4574
 288                 7.4812
 289                 7.5049
 290                 7.5286
 291                 7.5524
 292                 7.5761
 293                 7.5998
 294                 7.6236
 295                 7.6473
 296                 7.6710
 297                 7.6947
 298                 7.7184
 299                 7.7421
 300                 7.7659
 301                 7.7896
 302                 7.8133
 303                 7.8370
 304                 7.8607
 305                 7.8844
 306                 7.9081
 307                 7.9318
 308                 7.9555
 309                 7.9792
 310                 8.0029
 311                 8.0266
 312                 8.0503
 313                 8.0740
 314                 8.0977
 315                 8.1213
 316                 8.1450
 317                 8.1687
 318                 8.1924
 319                 8.2161
 320                 8.2398
 321                 8.2635
 322                 8.2871
 323                 8.3108
 324                 8.3345
 325                 8.3582
 326                 8.3819
 327                 8.4055
 328                 8.4292
 329                 8.4529
 330                 8.4766
 331                 8.5003
 332                 8.5239
 333                 8.5476
 334                 8.5713
 335                 8.5950
 336                 8.6187
 337                 8.6423
 338                 8.6660
 339                 8.6897
 340                 8.7134
 341                 8.7370
 342                 8.7607
 343                 8.7844
 344                 8.8081
 345                 8.8317
 346                 8.8554
 347                 8.8791
 348                 8.9028
 349                 8.9264
 350                 8.9501
 351                 8.9738
 352                 8.9975
 353                 9.0212
 354                 9.0448
 355                 9.0685
 356                 9.0922
 357                 9.1159
 358                 9.1396
 359                 9.1632
 360                 9.1869
 361                 9.2106
 362                 9.2343
 363                 9.2580
 364                 9.2816
 365                 9.3053
 366                 9.3290
 367                 9.3527
 368                 9.3764
 369                 9.4001
 370                 9.4237
 371                 9.4474
 372                 9.4711
 373                 9.4948
 374                 9.5185
 375                 9.5422
 376                 9.5659
 377                 9.5896
 378                 9.6133
 379                 9.6369
 380                 9.6606
 381                 9.6843
 382                 9.7080
 383                 9.7317
 384                 9.7554
 385                 9.7791
 386                 9.8028
 387                 9.8265
 388                 9.8502
 389                 9.8739
 390                 9.8976
 391                 9.9213
 392                 9.9450
 393                 9.9687
 394                 9.9924
 395                10.0161
 396                10.0398
 397                10.0635
 398                10.0872
 399                10.1109
 400                10.1346
 401                10.1584
 402                10.1821
 403                10.2058
 404                10.2295
 405                10.2532
 406                10.2769
 407                10.3006
 408                10.3243
 409                10.3481
 410                10.3718
 411                10.3955
 412                10.4192
 413                10.4429
 414                10.4667
 415                10.4904
 416                10.5141
 417                10.5378
 418                10.5615
 419                10.5853
 420                10.6090
 421                10.6327
 422                10.6565
 423                10.6802
 424                10.7039
 425                10.7276
 426                10.7514
 427                10.7751
 428                10.7988
 429                10.8226
 430                10.8463
 431                10.8701
 432                10.8938
 433                10.9175
 434                10.9413
 435                10.9650
 436                10.9888
 437                11.0125
 438                11.0362
 439                11.0600
 440                11.0837
 441                11.1075
 442                11.1312
 443                11.1550
 444                11.1787
 445                11.2025
 446                11.2262
 447                11.2500
 448                11.2737
 449                11.2975
 450                11.3213
 451                11.3450
 452                11.3688
 453                11.3925
 454                11.4163
 455                11.4401
 456                11.4638
 457                11.4876
 458                11.5114
 459                11.5351
 460                11.5589
 461                11.5827
 462                11.6064
 463                11.6302
 464                11.6540
 465                11.6777
 466                11.7015
 467                11.7253
 468                11.7491
 469                11.7728
 470                11.7966
 471                11.8204
 472                11.8442
 473                11.8680
 474                11.8917
 475                11.9155
 476                11.9393
 477                11.9631
 478                11.9869
 479                12.0107
 480                12.0344
 481                12.0582
 482                12.0820
 483                12.1058
 484                12.1296
 485                12.1534
 486                12.1772
 487                12.2010
 488                12.2248
 489                12.2486
 490                12.2724
 491                12.2962
 492                12.3200
 493                12.3438
 494                12.3676
 495                12.3914
 496                12.4152
 497                12.4390
 498                12.4628
 499                12.4866
 500                12.5104
 501                12.5342
 502                12.5581
 503                12.5819
 504                12.6057
 505                12.6295
 506                12.6533
 507                12.6771
 508                12.7009
 509                12.7248
 510                12.7486
 511                12.7724
 512                12.7962
 513                12.8200
 514                12.8439
 515                12.8677
 516                12.8915
 517                12.9154
 518                12.9392
 519                12.9630
 520                12.9868
 521                13.0107
 522                13.0345
 523                13.0583
 524                13.0822
 525                13.1060
 526                13.1298
 527                13.1537
 528                13.1775
 529                13.2014
 530                13.2252
 531                13.2490
 532                13.2729
 533                13.2967
 534                13.3206
 535                13.3444
 536                13.3683
 537                13.3921
 538                13.4160
 539                13.4398
 540                13.4637
 541                13.4875
 542                13.5114
 543                13.5352
 544                13.5591
 545                13.5829
 546                13.6068
 547                13.6307
 548                13.6545
 549                13.6784
 550                13.7022
 551                13.7261
 552                13.7500
 553                13.7738
 554                13.7977
 555                13.8216
 556                13.8454
 557                13.8693
 558                13.8932
 559                13.9171
 560                13.9409
 561                13.9648
 562                13.9887
 563                14.0126
 564                14.0364
 565                14.0603
 566                14.0842
 567                14.1081
 568                14.1320
 569                14.1558
 570                14.1797
 571                14.2036
 572                14.2275
 573                14.2514
 574                14.2753
 575                14.2992
 576                14.3231
 577                14.3469
 578                14.3708
 579                14.3947
 580                14.4186
 581                14.4425
 582                14.4664
 583                14.4903
 584                14.5142
 585                14.5381
 586                14.5620
 587                14.5859
 588                14.6098
 589                14.6337
 590                14.6576
 591                14.6815
 592                14.7055
 593                14.7294
 594                14.7533
 595                14.7772
 596                14.8011
 597                14.8250
 598                14.8489
 599                14.8728
 600                14.8968
 601                14.9207
 602                14.9446
 603                14.9685
 604                14.9924
 605                15.0164
 606                15.0403
 607                15.0642
 608                15.0881
 609                15.1121
 610                15.1360
 611                15.1599
 612                15.1838
 613                15.2078
 614                15.2317
 615                15.2556
 616                15.2796
 617                15.3035
 618                15.3275
 619                15.3514
 620                15.3753
 621                15.3993
 622                15.4232
 623                15.4472
 624                15.4711
 625                15.4950
 626                15.5190
 627                15.5429
 628                15.5669
 629                15.5908
 630                15.6148
 631                15.6387
 632                15.6627
 633                15.6866
 634                15.7106
 635                15.7346
 636                15.7585
 637                15.7825
 638                15.8064
 639                15.8304
 640                15.8544
 641                15.8783
 642                15.9023
 643                15.9263
 644                15.9502
 645                15.9742
 646                15.9982
 647                16.0221
 648                16.0461
 649                16.0701
 650                16.0940
 651                16.1180
 652                16.1420
 653                16.1660
 654                16.1900
 655                16.2139
 656                16.2379
 657                16.2619
 658                16.2859
 659                16.3099
 660                16.3339
 661                16.3578
 662                16.3818
 663                16.4058
 664                16.4298
 665                16.4538
 666                16.4778
 667                16.5018
 668                16.5258
 669                16.5498
 670                16.5738
 671                16.5978
 672                16.6218
 673                16.6458
 674                16.6698
 675                16.6938
 676                16.7178
 677                16.7418
 678                16.7658
 679                16.7898
 680                16.8138
 681                16.8378
 682                16.8618
 683                16.8859
 684                16.9099
 685                16.9339
 686                16.9579
